% * Sample: 2SJ28_8
% * Date / time: 2022-01-31 19:06:28.060181
% Column 1:  PSU1 nominal voltage setting (V)
% Column 2:  PSU1 nominal current setting (A)
% Column 3:  PSU1 voltage measurement (V)
% Column 4:  PSU1 current measurement (I)
% Column 5:  PSU1 limiter flag
% Column 6:  PSU2 nominal voltage setting (V)
% Column 7:  PSU2 nominal current setting (A)
% Column 8:  PSU2 voltage measurement (V)
% Column 9:  PSU2 current measurement (I)
% Column 10: PSU2 limiter flag
% Column 11: Heaterblock temperature (°C)
% * OPERATING POINT AT END OF PREHEAT / IDLE: U0 = -20.000 V  I0 = -1.600 A  Uc = 5.662 V  Ic = 0.002 A  T = 50.06 °C
-0.000 -10.000 -0.000 -0.005 0 0.000 1.000 0.004 0.002 0 50.06
-2.000 -10.000 -2.000 -1.350 0 0.000 1.000 0.004 0.002 0 50.12
-4.000 -10.000 -4.000 -2.369 0 0.000 1.000 0.004 0.002 0 50.06
-6.000 -10.000 -6.000 -3.117 0 0.000 1.000 0.004 0.002 0 50.00
-8.000 -10.000 -8.000 -3.681 0 0.000 1.000 0.004 0.002 0 49.88
-10.000 -9.500 -10.000 -4.115 0 0.000 1.000 0.004 0.002 0 49.81
-12.000 -7.917 -12.000 -4.453 0 0.000 1.000 0.004 0.002 0 49.81
-14.000 -6.786 -14.000 -4.705 0 0.000 1.000 0.004 0.002 0 49.81
-16.000 -5.938 -16.000 -4.902 0 0.000 1.000 0.004 0.002 0 49.94
-18.000 -5.278 -18.000 -5.051 0 0.000 1.000 0.004 0.002 0 50.06
-20.000 -4.750 -16.222 -4.743 1 0.000 1.000 0.004 0.002 0 50.25
-0.000 -10.000 -0.000 -0.003 0 2.000 1.000 2.000 0.002 0 50.69
-2.000 -10.000 -2.000 -0.845 0 2.000 1.000 2.000 0.002 0 49.56
-4.000 -10.000 -4.000 -1.482 0 2.000 1.000 2.000 0.002 0 49.44
-6.000 -10.000 -6.000 -1.986 0 2.000 1.000 2.000 0.002 0 49.75
-8.000 -10.000 -8.000 -2.411 0 2.000 1.000 2.000 0.002 0 49.75
-10.000 -9.500 -10.000 -2.767 0 2.000 1.000 2.000 0.002 0 49.81
-12.000 -7.917 -12.000 -3.068 0 2.000 1.000 2.000 0.002 0 49.88
-14.000 -6.786 -14.000 -3.323 0 2.000 1.000 2.000 0.002 0 50.00
-16.000 -5.938 -16.000 -3.537 0 2.000 1.000 2.000 0.002 0 50.12
-18.000 -5.278 -18.000 -3.709 0 2.000 1.000 2.000 0.002 0 50.25
-20.000 -4.750 -20.000 -3.859 0 2.000 1.000 2.000 0.002 0 50.38
-22.000 -4.318 -22.000 -3.985 0 2.000 1.000 2.000 0.002 0 50.56
-24.000 -3.958 -18.000 -3.955 1 2.000 1.000 2.000 0.002 0 49.69
-0.000 -10.000 -0.000 -0.001 0 4.000 1.000 4.000 0.002 0 49.75
-2.000 -10.000 -2.000 -0.310 0 4.000 1.000 4.000 0.002 0 49.88
-4.000 -10.000 -4.000 -0.652 0 4.000 1.000 4.000 0.002 0 49.94
-6.000 -10.000 -6.000 -0.980 0 4.000 1.000 4.000 0.002 0 49.88
-8.000 -10.000 -8.000 -1.283 0 4.000 1.000 4.000 0.002 0 49.81
-10.000 -9.500 -10.000 -1.561 0 4.000 1.000 4.000 0.002 0 49.75
-12.000 -7.917 -12.000 -1.815 0 4.000 1.000 4.000 0.002 0 49.75
-14.000 -6.786 -14.000 -2.048 0 4.000 1.000 4.000 0.002 0 49.75
-16.000 -5.938 -16.000 -2.256 0 4.000 1.000 4.000 0.002 0 49.75
-18.000 -5.278 -18.000 -2.444 0 4.000 1.000 4.000 0.002 0 49.81
-20.000 -4.750 -20.000 -2.614 0 4.000 1.000 4.000 0.002 0 49.88
-22.000 -4.318 -22.000 -2.761 0 4.000 1.000 4.000 0.002 0 50.00
-24.000 -3.958 -24.000 -2.895 0 4.000 1.000 4.000 0.002 0 50.12
-26.000 -3.654 -26.000 -3.013 0 4.000 1.000 4.000 0.002 0 50.25
-28.000 -3.393 -28.000 -3.119 0 4.000 1.000 4.000 0.002 0 50.44
-30.000 -3.167 -29.234 -3.166 1 4.000 1.000 4.000 0.002 0 50.62
-0.000 -10.000 -0.316 -0.000 0 6.000 0.833 6.000 0.002 0 49.56
-2.000 -10.000 -2.000 -0.004 0 6.000 0.833 6.000 0.002 0 49.62
-4.000 -10.000 -4.000 -0.077 0 6.000 0.833 6.000 0.002 0 49.56
-6.000 -10.000 -6.000 -0.216 0 6.000 0.833 6.000 0.002 0 49.50
-8.000 -10.000 -8.000 -0.384 0 6.000 0.833 6.000 0.002 0 49.50
-10.000 -9.500 -10.000 -0.563 0 6.000 0.833 6.000 0.002 0 49.44
-12.000 -7.917 -12.000 -0.743 0 6.000 0.833 6.000 0.002 0 49.69
-14.000 -6.786 -14.000 -0.923 0 6.000 0.833 6.000 0.002 0 49.69
-16.000 -5.938 -16.000 -1.097 0 6.000 0.833 6.000 0.002 0 49.75
-18.000 -5.278 -18.000 -1.266 0 6.000 0.833 6.000 0.002 0 49.75
-20.000 -4.750 -20.000 -1.426 0 6.000 0.833 6.000 0.002 0 49.81
-22.000 -4.318 -22.000 -1.577 0 6.000 0.833 6.000 0.002 0 49.94
-24.000 -3.958 -24.000 -1.720 0 6.000 0.833 6.000 0.002 0 50.00
-26.000 -3.654 -26.000 -1.853 0 6.000 0.833 6.000 0.002 0 50.06
-28.000 -3.393 -28.000 -1.977 0 6.000 0.833 6.000 0.002 0 50.19
-30.000 -3.167 -30.000 -2.091 0 6.000 0.833 6.000 0.002 0 50.31
-32.000 -2.969 -32.000 -2.194 0 6.000 0.833 6.000 0.002 0 50.44
-34.000 -2.794 -34.000 -2.292 0 6.000 0.833 6.000 0.002 0 50.62
-36.000 -2.639 -36.000 -2.579 0 6.000 0.833 6.000 0.002 0 49.50
-38.000 -2.500 -37.247 -2.499 1 6.000 0.833 6.000 0.002 0 49.56
-0.000 -10.000 -1.442 -0.000 0 8.000 0.625 8.000 0.002 0 50.38
-2.000 -10.000 -2.000 -0.000 0 8.000 0.625 8.000 0.002 0 50.44
-4.000 -10.000 -4.000 -0.000 0 8.000 0.625 8.000 0.002 0 50.38
-6.000 -10.000 -6.000 -0.000 0 8.000 0.625 8.000 0.002 0 50.25
-8.000 -10.000 -8.000 -0.001 0 8.000 0.625 8.000 0.002 0 50.12
-10.000 -9.500 -10.000 -0.014 0 8.000 0.625 8.000 0.002 0 50.00
-12.000 -7.917 -12.000 -0.053 0 8.000 0.625 8.000 0.002 0 49.81
-14.000 -6.786 -14.000 -0.120 0 8.000 0.625 8.000 0.002 0 49.69
-16.000 -5.938 -16.000 -0.206 0 8.000 0.625 8.000 0.002 0 49.56
-18.000 -5.278 -18.000 -0.307 0 8.000 0.625 8.000 0.002 0 49.50
-20.000 -4.750 -20.000 -0.416 0 8.000 0.625 8.000 0.002 0 49.44
-22.000 -4.318 -22.000 -0.528 0 8.000 0.625 8.000 0.002 0 49.75
-24.000 -3.958 -24.000 -0.645 0 8.000 0.625 8.000 0.002 0 49.81
-26.000 -3.654 -26.000 -0.761 0 8.000 0.625 8.000 0.002 0 49.81
-28.000 -3.393 -28.000 -0.877 0 8.000 0.625 8.000 0.002 0 49.88
-30.000 -3.167 -30.000 -0.990 0 8.000 0.625 8.000 0.002 0 49.94
-32.000 -2.969 -32.000 -1.101 0 8.000 0.625 8.000 0.002 0 50.00
-34.000 -2.794 -34.000 -1.208 0 8.000 0.625 8.000 0.002 0 50.06
-36.000 -2.639 -36.000 -1.309 0 8.000 0.625 8.000 0.002 0 50.19
-38.000 -2.500 -38.000 -1.407 0 8.000 0.625 8.000 0.002 0 50.25
-40.000 -2.375 -40.000 -1.501 0 8.000 0.625 8.000 0.002 0 50.38
-42.000 -2.262 -42.000 -1.589 0 8.000 0.625 8.000 0.002 0 50.50
-44.000 -2.159 -44.000 -1.673 0 8.000 0.625 8.000 0.002 0 50.62
-46.000 -2.065 -46.000 -1.899 0 8.000 0.625 8.000 0.002 0 49.69
-48.000 -1.979 -48.000 -1.896 0 8.000 0.625 8.000 0.002 0 49.62
-50.000 -1.900 -49.089 -1.899 1 8.000 0.625 8.000 0.002 0 49.75
-0.000 -10.000 -3.281 -0.000 0 10.000 0.500 10.000 0.002 0 50.50
-2.000 -10.000 -2.000 -0.000 0 10.000 0.500 10.000 0.002 0 50.56
-4.000 -10.000 -4.000 -0.000 0 10.000 0.500 10.000 0.002 0 49.56
-6.000 -10.000 -6.000 -0.000 0 10.000 0.500 10.000 0.002 0 49.50
-8.000 -10.000 -8.000 -0.000 0 10.000 0.500 10.000 0.002 0 49.38
-10.000 -9.500 -10.000 -0.000 0 10.000 0.500 10.000 0.002 0 49.69
-12.000 -7.917 -12.000 -0.000 0 10.000 0.500 10.000 0.002 0 49.75
-14.000 -6.786 -14.000 -0.000 0 10.000 0.500 10.000 0.002 0 49.75
-16.000 -5.938 -16.000 -0.000 0 10.000 0.500 10.000 0.002 0 49.81
-18.000 -5.278 -18.000 -0.000 0 10.000 0.500 10.000 0.002 0 49.81
-20.000 -4.750 -20.000 -0.001 0 10.000 0.500 10.000 0.002 0 49.81
-22.000 -4.318 -22.000 -0.007 0 10.000 0.500 10.000 0.002 0 49.81
-24.000 -3.958 -24.000 -0.022 0 10.000 0.500 10.000 0.002 0 49.81
-26.000 -3.654 -26.000 -0.049 0 10.000 0.500 10.000 0.002 0 49.81
-28.000 -3.393 -28.000 -0.090 0 10.000 0.500 10.000 0.002 0 49.81
-30.000 -3.167 -30.000 -0.142 0 10.000 0.500 10.000 0.002 0 49.88
-32.000 -2.969 -32.000 -0.204 0 10.000 0.500 10.000 0.002 0 49.88
-34.000 -2.794 -34.000 -0.274 0 10.000 0.500 10.000 0.002 0 49.88
-36.000 -2.639 -36.000 -0.349 0 10.000 0.500 10.000 0.002 0 49.88
-38.000 -2.500 -38.000 -0.428 0 10.000 0.500 10.000 0.002 0 49.94
-40.000 -2.375 -40.000 -0.509 0 10.000 0.500 10.000 0.002 0 49.94
-42.000 -2.262 -42.000 -0.592 0 10.000 0.500 10.000 0.002 0 50.00
-44.000 -2.159 -44.000 -0.674 0 10.000 0.500 10.000 0.002 0 50.06
-46.000 -2.065 -46.000 -0.757 0 10.000 0.500 10.000 0.002 0 50.12
-48.000 -1.979 -48.000 -0.838 0 10.000 0.500 10.000 0.002 0 50.25
-50.000 -1.900 -50.000 -0.916 0 10.000 0.500 10.000 0.002 0 50.31
-52.000 -1.827 -52.000 -0.994 0 10.000 0.500 10.000 0.002 0 50.44
-54.000 -1.759 -54.000 -1.068 0 10.000 0.500 10.000 0.002 0 50.50
-56.000 -1.696 -56.000 -1.140 0 10.000 0.500 10.000 0.002 0 50.62
-58.000 -1.638 -58.000 -1.298 0 10.000 0.500 10.000 0.002 0 49.75
-60.000 -1.583 -60.000 -1.320 0 10.000 0.500 10.000 0.002 0 49.69
-0.000 -10.000 -6.460 -0.000 0 12.000 0.417 12.000 0.002 0 49.94
-2.000 -10.000 -2.000 -0.000 0 12.000 0.417 12.000 0.002 0 50.00
-4.000 -10.000 -4.000 -0.000 0 12.000 0.417 12.000 0.002 0 50.00
-6.000 -10.000 -6.000 -0.000 0 12.000 0.417 12.000 0.002 0 49.94
-8.000 -10.000 -8.000 -0.000 0 12.000 0.417 12.000 0.002 0 49.88
-10.000 -9.500 -10.000 -0.000 0 12.000 0.417 12.000 0.002 0 49.75
-12.000 -7.917 -12.000 -0.000 0 12.000 0.417 12.000 0.002 0 49.69
-14.000 -6.786 -14.000 -0.000 0 12.000 0.417 12.000 0.002 0 49.62
-16.000 -5.938 -16.000 -0.000 0 12.000 0.417 12.000 0.002 0 49.56
-18.000 -5.278 -18.000 -0.000 0 12.000 0.417 12.000 0.002 0 49.56
-20.000 -4.750 -20.000 -0.000 0 12.000 0.417 12.000 0.002 0 49.56
-22.000 -4.318 -22.000 -0.000 0 12.000 0.417 12.000 0.002 0 49.50
-24.000 -3.958 -24.000 -0.000 0 12.000 0.417 12.000 0.002 0 49.50
-26.000 -3.654 -26.000 -0.000 0 12.000 0.417 12.000 0.002 0 49.56
-28.000 -3.393 -28.000 -0.000 0 12.000 0.417 12.000 0.002 0 49.56
-30.000 -3.167 -30.000 -0.000 0 12.000 0.417 12.000 0.002 0 49.56
-32.000 -2.969 -32.000 -0.000 0 12.000 0.417 12.000 0.002 0 49.62
-34.000 -2.794 -34.000 -0.000 0 12.000 0.417 12.000 0.002 0 49.62
-36.000 -2.639 -36.000 -0.001 0 12.000 0.417 12.000 0.002 0 49.69
-38.000 -2.500 -38.000 -0.002 0 12.000 0.417 12.000 0.002 0 49.69
-40.000 -2.375 -40.000 -0.007 0 12.000 0.417 12.000 0.002 0 49.75
-42.000 -2.262 -42.000 -0.016 0 12.000 0.417 12.000 0.002 0 49.75
-44.000 -2.159 -44.000 -0.031 0 12.000 0.417 12.000 0.002 0 49.81
-46.000 -2.065 -46.000 -0.053 0 12.000 0.417 12.000 0.002 0 49.81
-48.000 -1.979 -48.000 -0.082 0 12.000 0.417 12.000 0.002 0 49.81
-50.000 -1.900 -50.000 -0.120 0 12.000 0.417 12.000 0.002 0 49.88
-52.000 -1.827 -52.000 -0.164 0 12.000 0.417 12.000 0.002 0 49.88
-54.000 -1.759 -54.000 -0.213 0 12.000 0.417 12.000 0.002 0 49.94
-56.000 -1.696 -56.000 -0.265 0 12.000 0.417 12.000 0.002 0 49.94
-58.000 -1.638 -58.000 -0.323 0 12.000 0.417 12.000 0.002 0 50.00
-60.000 -1.583 -60.000 -0.382 0 12.000 0.417 12.000 0.002 0 50.06
-0.000 -10.000 -7.793 -0.000 0 14.000 0.357 14.000 0.002 0 50.19
-2.000 -10.000 -2.000 -0.000 0 14.000 0.357 14.000 0.002 0 50.19
-4.000 -10.000 -4.000 -0.000 0 14.000 0.357 14.000 0.002 0 50.12
-6.000 -10.000 -6.000 -0.000 0 14.000 0.357 14.000 0.002 0 50.06
-8.000 -10.000 -8.000 -0.000 0 14.000 0.357 14.000 0.002 0 50.00
-10.000 -9.500 -10.000 -0.000 0 14.000 0.357 14.000 0.002 0 49.94
-12.000 -7.917 -12.000 -0.000 0 14.000 0.357 14.000 0.002 0 49.88
-14.000 -6.786 -14.000 -0.000 0 14.000 0.357 14.000 0.002 0 49.88
-16.000 -5.938 -16.000 -0.000 0 14.000 0.357 14.000 0.002 0 49.81
-18.000 -5.278 -18.000 -0.000 0 14.000 0.357 14.000 0.002 0 49.81
-20.000 -4.750 -20.000 -0.000 0 14.000 0.357 14.000 0.002 0 49.75
-22.000 -4.318 -22.000 -0.000 0 14.000 0.357 14.000 0.002 0 49.75
-24.000 -3.958 -24.000 -0.000 0 14.000 0.357 14.000 0.002 0 49.75
-26.000 -3.654 -26.000 -0.000 0 14.000 0.357 14.000 0.002 0 49.75
-28.000 -3.393 -28.000 -0.000 0 14.000 0.357 14.000 0.002 0 49.75
-30.000 -3.167 -30.000 -0.000 0 14.000 0.357 14.000 0.002 0 49.75
-32.000 -2.969 -32.000 -0.000 0 14.000 0.357 14.000 0.002 0 49.81
-34.000 -2.794 -34.000 -0.000 0 14.000 0.357 14.000 0.002 0 49.81
-36.000 -2.639 -36.000 -0.000 0 14.000 0.357 14.000 0.002 0 49.81
-38.000 -2.500 -38.000 -0.000 0 14.000 0.357 14.000 0.002 0 49.88
-40.000 -2.375 -40.000 -0.000 0 14.000 0.357 14.000 0.002 0 49.88
-42.000 -2.262 -42.000 -0.000 0 14.000 0.357 14.000 0.002 0 49.88
-44.000 -2.159 -44.000 -0.000 0 14.000 0.357 14.000 0.002 0 49.88
-46.000 -2.065 -46.000 -0.000 0 14.000 0.357 14.000 0.002 0 49.94
-48.000 -1.979 -48.000 -0.000 0 14.000 0.357 14.000 0.002 0 49.94
-50.000 -1.900 -50.000 -0.000 0 14.000 0.357 14.000 0.002 0 49.94
-52.000 -1.827 -52.000 -0.000 0 14.000 0.357 14.000 0.002 0 49.94
-54.000 -1.759 -54.000 -0.001 0 14.000 0.357 14.000 0.002 0 49.94
-56.000 -1.696 -56.000 -0.001 0 14.000 0.357 14.000 0.002 0 49.94
-58.000 -1.638 -58.000 -0.001 0 14.000 0.357 14.000 0.002 0 50.00
-60.000 -1.583 -60.000 -0.002 0 14.000 0.357 14.000 0.002 0 50.00
-0.000 -10.000 -8.213 -0.000 0 16.000 0.312 16.000 0.002 0 50.00
-2.000 -10.000 -2.000 -0.000 0 16.000 0.312 16.000 0.002 0 50.00
-4.000 -10.000 -4.000 -0.000 0 16.000 0.312 16.000 0.002 0 50.00
-6.000 -10.000 -6.000 -0.000 0 16.000 0.312 16.000 0.002 0 50.00
-8.000 -10.000 -8.000 -0.000 0 16.000 0.312 16.000 0.002 0 49.94
-10.000 -9.500 -10.000 -0.000 0 16.000 0.312 16.000 0.002 0 49.94
-12.000 -7.917 -12.000 -0.000 0 16.000 0.312 16.000 0.002 0 49.94
-14.000 -6.786 -14.000 -0.000 0 16.000 0.312 16.000 0.002 0 49.94
-16.000 -5.938 -16.000 -0.000 0 16.000 0.312 16.000 0.002 0 49.94
-18.000 -5.278 -18.000 -0.000 0 16.000 0.312 16.000 0.002 0 49.94
-20.000 -4.750 -20.000 -0.000 0 16.000 0.312 16.000 0.002 0 49.94
-22.000 -4.318 -22.000 -0.000 0 16.000 0.312 16.000 0.002 0 49.94
-24.000 -3.958 -24.000 -0.000 0 16.000 0.312 16.000 0.002 0 49.94
-26.000 -3.654 -26.000 -0.000 0 16.000 0.312 16.000 0.002 0 49.94
-28.000 -3.393 -28.000 -0.000 0 16.000 0.312 16.000 0.002 0 50.00
-30.000 -3.167 -30.000 -0.000 0 16.000 0.312 16.000 0.002 0 49.94
-32.000 -2.969 -32.000 -0.000 0 16.000 0.312 16.000 0.002 0 50.00
-34.000 -2.794 -34.000 -0.000 0 16.000 0.312 16.000 0.002 0 50.00
-36.000 -2.639 -36.000 -0.000 0 16.000 0.312 16.000 0.002 0 50.00
-38.000 -2.500 -38.000 -0.000 0 16.000 0.312 16.000 0.002 0 50.00
-40.000 -2.375 -40.000 -0.000 0 16.000 0.312 16.000 0.002 0 50.00
-42.000 -2.262 -42.000 -0.000 0 16.000 0.312 16.000 0.002 0 50.00
-44.000 -2.159 -44.000 -0.000 0 16.000 0.312 16.000 0.002 0 50.00
-46.000 -2.065 -46.000 -0.000 0 16.000 0.312 16.000 0.002 0 50.00
-48.000 -1.979 -48.000 -0.000 0 16.000 0.312 16.000 0.002 0 50.00
-50.000 -1.900 -50.000 -0.000 0 16.000 0.312 16.000 0.002 0 50.00
-52.000 -1.827 -52.000 -0.000 0 16.000 0.312 16.000 0.002 0 50.00
-54.000 -1.759 -54.000 -0.000 0 16.000 0.312 16.000 0.002 0 50.00
-56.000 -1.696 -56.000 -0.000 0 16.000 0.312 16.000 0.002 0 50.00
-58.000 -1.638 -58.000 -0.001 0 16.000 0.312 16.000 0.002 0 49.94
-60.000 -1.583 -60.000 -0.001 0 16.000 0.312 16.000 0.002 0 50.00
